; C:\DIFFDAT1\Dorothea\Richard\Neuer Ordner\191126_P1_MER_RS03_3d_150_unkalz_V57.raw(Diffrac Plus V1.01 file) converted by XCH V1.0
_FILEVERSION=2
_SAMPLE='191126_P1_MER_RS03_3d_150_unkalz_V57'
_SITE='Deutschland'
_USER='Administrator'
_ATTACHMENTS_CODE=0
_GONIOMETER_RADIUS=217.500000
_FIXED_DIVSLIT=0.000000
_FIXED_SAMPLESLIT=0.000000
_FIXED_DETSLIT=10.390000
_MONOCHROMATOR=0
; None
_THIN_FILM='N'
_BETA_FILTER='N'
_FIXED_ANTISLIT=6.970000
_ANALYZER_CODE=0
; None
_DATEMEASURED='26-Nov-2019 13:44:11'
_WL_UNIT='A'
_WL1=1.540600
_WL2=1.544390
_WL3=1.392220
_WLRATIO=0.500000
_ANODE='Cu'
; (Data for Range number 1)
_DRIVE='COUPLED'
_STEPTIME=398.003998
_STEPSIZE=0.015259
_STEPMODE='C'
_START=5.000000
_THETA=2.500000
_2THETA=5.000000
_KHI=0.000000
_PHI=0.000000
_X=0.000000
_Y=0.000000
_Z=0.000000
_DIVERGENCE=0.298000
_ANTISCATTER=0.298000
_DETECTOR=5
_DETECTORSLIT='unkn'
_AUX1=0.000000
_AUX2=0.000000
_AUX3=0.000000
_TIMESTARTED=29.000000
_TEMP_RATE=-1.000000
_TEMP_DELAY=-1.000000
_KV=35
_MA=40
_RANGE_WL=1.540600
_3DPLANE=0
_2THETACOUNTS
   5.0000      1645
   5.0153      1681
   5.0305      1638
   5.0458      1671
   5.0610      1673
   5.0763      1572
   5.0916      1558
   5.1068      1601
   5.1221      1603
   5.1373      1521
   5.1526      1620
   5.1678      1632
   5.1831      1680
   5.1984      1563
   5.2136      1499
   5.2289      1638
   5.2441      1585
   5.2594      1547
   5.2747      1580
   5.2899      1480
   5.3052      1563
   5.3204      1551
   5.3357      1533
   5.3510      1486
   5.3662      1576
   5.3815      1652
   5.3967      1511
   5.4120      1496
   5.4272      1487
   5.4425      1501
   5.4578      1467
   5.4730      1499
   5.4883      1501
   5.5035      1523
   5.5188      1477
   5.5341      1489
   5.5493      1514
   5.5646      1529
   5.5798      1487
   5.5951      1509
   5.6104      1457
   5.6256      1437
   5.6409      1419
   5.6561      1461
   5.6714      1437
   5.6867      1495
   5.7019      1555
   5.7172      1463
   5.7324      1465
   5.7477      1418
   5.7629      1460
   5.7782      1469
   5.7935      1465
   5.8087      1476
   5.8240      1411
   5.8392      1471
   5.8545      1486
   5.8698      1471
   5.8850      1427
   5.9003      1507
   5.9155      1497
   5.9308      1570
   5.9461      1471
   5.9613      1549
   5.9766      1491
   5.9918      1501
   6.0071      1469
   6.0223      1487
   6.0376      1516
   6.0529      1427
   6.0681      1529
   6.0834      1501
   6.0986      1501
   6.1139      1452
   6.1292      1528
   6.1444      1522
   6.1597      1577
   6.1749      1540
   6.1902      1556
   6.2055      1574
   6.2207      1569
   6.2360      1450
   6.2512      1550
   6.2665      1474
   6.2817      1525
   6.2970      1433
   6.3123      1448
   6.3275      1451
   6.3428      1469
   6.3580      1414
   6.3733      1392
   6.3886      1385
   6.4038      1429
   6.4191      1450
   6.4343      1285
   6.4496      1368
   6.4649      1282
   6.4801      1303
   6.4954      1369
   6.5106      1325
   6.5259      1284
   6.5411      1280
   6.5564      1306
   6.5717      1262
   6.5869      1254
   6.6022      1282
   6.6174      1298
   6.6327      1356
   6.6480      1298
   6.6632      1234
   6.6785      1191
   6.6937      1322
   6.7090      1340
   6.7243      1249
   6.7395      1262
   6.7548      1243
   6.7700      1287
   6.7853      1231
   6.8006      1193
   6.8158      1245
   6.8311      1237
   6.8463      1245
   6.8616      1177
   6.8768      1196
   6.8921      1240
   6.9074      1268
   6.9226      1178
   6.9379      1226
   6.9531      1200
   6.9684      1186
   6.9837      1225
   6.9989      1146
   7.0142      1195
   7.0294      1060
   7.0447      1156
   7.0600      1100
   7.0752      1204
   7.0905      1161
   7.1057      1153
   7.1210      1123
   7.1362      1149
   7.1515      1132
   7.1668      1094
   7.1820      1102
   7.1973      1147
   7.2125      1140
   7.2278      1119
   7.2431      1174
   7.2583      1134
   7.2736      1165
   7.2888      1107
   7.3041      1184
   7.3194      1168
   7.3346      1149
   7.3499      1125
   7.3651      1128
   7.3804      1122
   7.3956      1175
   7.4109      1136
   7.4262      1122
   7.4414      1174
   7.4567      1139
   7.4719      1084
   7.4872      1094
   7.5025      1066
   7.5177      1064
   7.5330      1115
   7.5482      1079
   7.5635      1059
   7.5788      1091
   7.5940      1040
   7.6093      1098
   7.6245      1050
   7.6398      1068
   7.6550      1074
   7.6703      1087
   7.6856      1067
   7.7008      1030
   7.7161      1030
   7.7313      1037
   7.7466      1058
   7.7619      1066
   7.7771      1042
   7.7924      1035
   7.8076      1114
   7.8229      1070
   7.8382      1081
   7.8534      1051
   7.8687      1082
   7.8839      1044
   7.8992      1035
   7.9144      1053
   7.9297      1058
   7.9450       987
   7.9602       959
   7.9755      1037
   7.9907      1033
   8.0060      1035
   8.0213      1055
   8.0365      1057
   8.0518      1032
   8.0670      1024
   8.0823      1000
   8.0976      1063
   8.1128      1080
   8.1281      1008
   8.1433      1027
   8.1586      1046
   8.1739      1061
   8.1891      1099
   8.2044      1000
   8.2196      1055
   8.2349      1020
   8.2501      1010
   8.2654       987
   8.2807      1007
   8.2959      1039
   8.3112      1054
   8.3264      1047
   8.3417      1025
   8.3570      1002
   8.3722       995
   8.3875      1115
   8.4027      1015
   8.4180      1032
   8.4333      1017
   8.4485      1020
   8.4638      1085
   8.4790      1109
   8.4943      1085
   8.5095      1021
   8.5248      1055
   8.5401      1047
   8.5553      1090
   8.5706      1104
   8.5858      1063
   8.6011      1101
   8.6164      1095
   8.6316      1181
   8.6469      1180
   8.6621      1123
   8.6774      1196
   8.6927      1153
   8.7079      1169
   8.7232      1204
   8.7384      1215
   8.7537      1271
   8.7689      1234
   8.7842      1243
   8.7995      1336
   8.8147      1308
   8.8300      1434
   8.8452      1410
   8.8605      1406
   8.8758      1441
   8.8910      1502
   8.9063      1460
   8.9215      1405
   8.9368      1484
   8.9521      1422
   8.9673      1436
   8.9826      1446
   8.9978      1489
   9.0131      1478
   9.0283      1397
   9.0436      1343
   9.0589      1256
   9.0741      1307
   9.0894      1275
   9.1046      1222
   9.1199      1210
   9.1352      1152
   9.1504      1196
   9.1657      1156
   9.1809      1161
   9.1962      1091
   9.2115      1112
   9.2267      1097
   9.2420       995
   9.2572      1057
   9.2725      1063
   9.2878       962
   9.3030      1028
   9.3183      1023
   9.3335       963
   9.3488       989
   9.3640       998
   9.3793      1034
   9.3946      1027
   9.4098      1030
   9.4251      1019
   9.4403      1045
   9.4556       993
   9.4709       994
   9.4861       952
   9.5014      1003
   9.5166       987
   9.5319       925
   9.5472       893
   9.5624       893
   9.5777       956
   9.5929       942
   9.6082       890
   9.6234       967
   9.6387       916
   9.6540       906
   9.6692       982
   9.6845       979
   9.6997       949
   9.7150       971
   9.7303       963
   9.7455       899
   9.7608       905
   9.7760       950
   9.7913       929
   9.8066       973
   9.8218       928
   9.8371       942
   9.8523       904
   9.8676       913
   9.8828       933
   9.8981       903
   9.9134       930
   9.9286       943
   9.9439       939
   9.9591       945
   9.9744       950
   9.9897       923
  10.0049       925
  10.0202       982
  10.0354       902
  10.0507       868
  10.0660       877
  10.0812       926
  10.0965       939
  10.1117       914
  10.1270       926
  10.1422       940
  10.1575       962
  10.1728       956
  10.1880       941
  10.2033       949
  10.2185       963
  10.2338       952
  10.2491       896
  10.2643       962
  10.2796      1036
  10.2948      1013
  10.3101       969
  10.3254       969
  10.3406       940
  10.3559       956
  10.3711       955
  10.3864       932
  10.4017      1002
  10.4169       942
  10.4322      1001
  10.4474       980
  10.4627      1026
  10.4779      1007
  10.4932       967
  10.5085      1035
  10.5237      1072
  10.5390      1045
  10.5542      1090
  10.5695      1075
  10.5848      1154
  10.6000      1127
  10.6153      1151
  10.6305      1161
  10.6458      1241
  10.6611      1258
  10.6763      1366
  10.6916      1353
  10.7068      1435
  10.7221      1577
  10.7373      1654
  10.7526      1759
  10.7679      1920
  10.7831      2105
  10.7984      2271
  10.8136      2535
  10.8289      2739
  10.8442      3135
  10.8594      3321
  10.8747      3539
  10.8899      4013
  10.9052      4406
  10.9205      4510
  10.9357      4606
  10.9510      4519
  10.9662      4363
  10.9815      4227
  10.9967      3972
  11.0120      3668
  11.0273      3208
  11.0425      2934
  11.0578      2685
  11.0730      2291
  11.0883      2061
  11.1036      1937
  11.1188      1721
  11.1341      1599
  11.1493      1468
  11.1646      1401
  11.1799      1273
  11.1951      1276
  11.2104      1221
  11.2256      1146
  11.2409      1154
  11.2561      1137
  11.2714      1065
  11.2867      1136
  11.3019      1106
  11.3172      1110
  11.3324      1094
  11.3477      1059
  11.3630      1028
  11.3782      1047
  11.3935      1065
  11.4087      1057
  11.4240      1007
  11.4393      1015
  11.4545       998
  11.4698      1010
  11.4850      1007
  11.5003       932
  11.5156      1002
  11.5308       987
  11.5461       969
  11.5613       922
  11.5766       947
  11.5918       992
  11.6071       956
  11.6224       934
  11.6376       977
  11.6529       994
  11.6681       979
  11.6834       999
  11.6987      1016
  11.7139       988
  11.7292       971
  11.7444       992
  11.7597       958
  11.7750       933
  11.7902       942
  11.8055       967
  11.8207       928
  11.8360       959
  11.8512       942
  11.8665       954
  11.8818       969
  11.8970       978
  11.9123       995
  11.9275      1006
  11.9428       942
  11.9581       932
  11.9733       904
  11.9886       970
  12.0038       925
  12.0191      1011
  12.0344       970
  12.0496      1026
  12.0649       984
  12.0801       971
  12.0954       990
  12.1106      1082
  12.1259      1045
  12.1412      1064
  12.1564      1043
  12.1717      1107
  12.1869      1092
  12.2022      1136
  12.2175      1170
  12.2327      1179
  12.2480      1236
  12.2632      1310
  12.2785      1331
  12.2938      1330
  12.3090      1403
  12.3243      1526
  12.3395      1615
  12.3548      1707
  12.3700      1795
  12.3853      2001
  12.4006      2092
  12.4158      2265
  12.4311      2473
  12.4463      2696
  12.4616      3034
  12.4769      3299
  12.4921      3526
  12.5074      4001
  12.5226      4296
  12.5379      4610
  12.5532      4998
  12.5684      5306
  12.5837      5413
  12.5989      5702
  12.6142      5933
  12.6295      5635
  12.6447      5536
  12.6600      5256
  12.6752      4961
  12.6905      4610
  12.7057      4247
  12.7210      3864
  12.7363      3351
  12.7515      3005
  12.7668      2778
  12.7820      2477
  12.7973      2282
  12.8126      1986
  12.8278      1830
  12.8431      1772
  12.8583      1532
  12.8736      1501
  12.8889      1401
  12.9041      1283
  12.9194      1299
  12.9346      1254
  12.9499      1088
  12.9651      1146
  12.9804      1070
  12.9957      1063
  13.0109      1008
  13.0262       996
  13.0414       913
  13.0567       957
  13.0720       943
  13.0872       873
  13.1025       910
  13.1177       894
  13.1330       821
  13.1483       809
  13.1635       857
  13.1788       832
  13.1940       851
  13.2093       833
  13.2245       796
  13.2398       800
  13.2551       817
  13.2703       770
  13.2856       821
  13.3008       846
  13.3161       765
  13.3314       790
  13.3466       839
  13.3619       790
  13.3771       770
  13.3924       739
  13.4077       767
  13.4229       776
  13.4382       797
  13.4534       774
  13.4687       797
  13.4839       749
  13.4992       755
  13.5145       791
  13.5297       786
  13.5450       744
  13.5602       768
  13.5755       752
  13.5908       736
  13.6060       690
  13.6213       746
  13.6365       750
  13.6518       721
  13.6671       735
  13.6823       718
  13.6976       792
  13.7128       713
  13.7281       716
  13.7433       729
  13.7586       704
  13.7739       715
  13.7891       674
  13.8044       689
  13.8196       715
  13.8349       688
  13.8502       740
  13.8654       714
  13.8807       689
  13.8959       727
  13.9112       693
  13.9265       693
  13.9417       674
  13.9570       705
  13.9722       698
  13.9875       664
  14.0028       709
  14.0180       713
  14.0333       710
  14.0485       743
  14.0638       691
  14.0790       703
  14.0943       718
  14.1096       677
  14.1248       666
  14.1401       675
  14.1553       706
  14.1706       730
  14.1859       701
  14.2011       707
  14.2164       655
  14.2316       763
  14.2469       685
  14.2622       629
  14.2774       637
  14.2927       661
  14.3079       686
  14.3232       685
  14.3384       722
  14.3537       655
  14.3690       686
  14.3842       647
  14.3995       627
  14.4147       654
  14.4300       670
  14.4453       634
  14.4605       638
  14.4758       679
  14.4910       658
  14.5063       636
  14.5216       685
  14.5368       681
  14.5521       613
  14.5673       669
  14.5826       671
  14.5978       640
  14.6131       676
  14.6284       623
  14.6436       679
  14.6589       668
  14.6741       633
  14.6894       665
  14.7047       650
  14.7199       657
  14.7352       639
  14.7504       626
  14.7657       692
  14.7810       587
  14.7962       651
  14.8115       679
  14.8267       674
  14.8420       598
  14.8572       647
  14.8725       576
  14.8878       669
  14.9030       674
  14.9183       593
  14.9335       673
  14.9488       635
  14.9641       606
  14.9793       648
  14.9946       580
  15.0098       612
  15.0251       629
  15.0404       660
  15.0556       642
  15.0709       638
  15.0861       649
  15.1014       638
  15.1167       635
  15.1319       638
  15.1472       653
  15.1624       614
  15.1777       663
  15.1929       620
  15.2082       627
  15.2235       624
  15.2387       607
  15.2540       688
  15.2692       652
  15.2845       636
  15.2998       654
  15.3150       623
  15.3303       648
  15.3455       672
  15.3608       598
  15.3761       653
  15.3913       691
  15.4066       678
  15.4218       672
  15.4371       655
  15.4523       634
  15.4676       657
  15.4829       661
  15.4981       704
  15.5134       665
  15.5286       655
  15.5439       719
  15.5592       628
  15.5744       601
  15.5897       668
  15.6049       607
  15.6202       680
  15.6355       618
  15.6507       638
  15.6660       629
  15.6812       626
  15.6965       593
  15.7117       614
  15.7270       637
  15.7423       636
  15.7575       690
  15.7728       638
  15.7880       609
  15.8033       646
  15.8186       702
  15.8338       616
  15.8491       617
  15.8643       649
  15.8796       593
  15.8949       677
  15.9101       640
  15.9254       677
  15.9406       647
  15.9559       699
  15.9711       688
  15.9864       648
  16.0017       616
  16.0169       640
  16.0322       679
  16.0474       662
  16.0627       658
  16.0780       696
  16.0932       695
  16.1085       683
  16.1237       692
  16.1390       737
  16.1543       703
  16.1695       724
  16.1848       771
  16.2000       713
  16.2153       731
  16.2306       698
  16.2458       775
  16.2611       764
  16.2763       790
  16.2916       751
  16.3068       790
  16.3221       790
  16.3374       798
  16.3526       857
  16.3679       861
  16.3831       897
  16.3984       886
  16.4137      1025
  16.4289      1028
  16.4442      1084
  16.4594      1087
  16.4747      1174
  16.4900      1219
  16.5052      1368
  16.5205      1445
  16.5357      1587
  16.5510      1722
  16.5662      1841
  16.5815      1928
  16.5968      2149
  16.6120      2239
  16.6273      2365
  16.6425      2507
  16.6578      2551
  16.6731      2666
  16.6883      2797
  16.7036      2708
  16.7188      2703
  16.7341      2697
  16.7494      2510
  16.7646      2513
  16.7799      2361
  16.7951      2243
  16.8104      2130
  16.8256      1927
  16.8409      1799
  16.8562      1704
  16.8714      1607
  16.8867      1469
  16.9019      1344
  16.9172      1265
  16.9325      1225
  16.9477      1175
  16.9630      1139
  16.9782      1050
  16.9935       973
  17.0088       913
  17.0240       920
  17.0393       860
  17.0545       849
  17.0698       808
  17.0850       870
  17.1003       829
  17.1156       844
  17.1308       794
  17.1461       811
  17.1613       785
  17.1766       763
  17.1919       789
  17.2071       828
  17.2224       783
  17.2376       750
  17.2529       800
  17.2682       776
  17.2834       796
  17.2987       793
  17.3139       752
  17.3292       749
  17.3445       801
  17.3597       779
  17.3750       744
  17.3902       781
  17.4055       777
  17.4207       811
  17.4360       845
  17.4513       825
  17.4665       977
  17.4818       829
  17.4970       818
  17.5123       900
  17.5276       913
  17.5428       963
  17.5581      1007
  17.5733      1046
  17.5886      1057
  17.6039      1144
  17.6191      1208
  17.6344      1401
  17.6496      1467
  17.6649      1561
  17.6801      1844
  17.6954      2089
  17.7107      2237
  17.7259      2583
  17.7412      2891
  17.7564      3327
  17.7717      3645
  17.7870      3991
  17.8022      4137
  17.8175      4413
  17.8327      4343
  17.8480      4669
  17.8633      4598
  17.8785      4664
  17.8938      4660
  17.9090      4491
  17.9243      4203
  17.9395      3805
  17.9548      3460
  17.9701      3008
  17.9853      2588
  18.0006      2240
  18.0158      2037
  18.0311      1712
  18.0464      1586
  18.0616      1455
  18.0769      1360
  18.0921      1265
  18.1074      1167
  18.1227      1067
  18.1379      1010
  18.1532      1025
  18.1684       959
  18.1837       912
  18.1989       856
  18.2142       862
  18.2295       778
  18.2447       800
  18.2600       776
  18.2752       733
  18.2905       710
  18.3058       778
  18.3210       747
  18.3363       750
  18.3515       738
  18.3668       721
  18.3821       698
  18.3973       678
  18.4126       711
  18.4278       679
  18.4431       731
  18.4583       697
  18.4736       744
  18.4889       679
  18.5041       636
  18.5194       649
  18.5346       673
  18.5499       710
  18.5652       658
  18.5804       648
  18.5957       645
  18.6109       650
  18.6262       725
  18.6415       666
  18.6567       653
  18.6720       655
  18.6872       668
  18.7025       677
  18.7178       665
